2theta,Intensity 
20.038307,77
20.058572,92
20.078838,78
20.099103,73
20.119368,76
20.139633,70
20.159898,68
20.180163,84
20.200428,74
20.220693,62
20.240958,68
20.261223,80
20.281488,74
20.301753,69
20.322019,59
20.342284,78
20.362549,74
20.382814,64
20.403079,75
20.423344,68
20.443609,75
20.463874,71
20.484139,74
20.504404,66
20.524669,63
20.544935,73
20.5652,75
20.585465,59
20.60573,68
20.625995,60
20.64626,69
20.666525,70
20.68679,69
20.707055,64
20.72732,67
20.747585,57
20.767851,71
20.788116,62
20.808381,76
20.828646,63
20.848911,56
20.869176,66
20.889441,76
20.909706,63
20.929971,81
20.950236,63
20.970501,71
20.990766,68
21.011032,57
21.031297,59
21.051562,66
21.071827,72
21.092092,71
21.112357,58
21.132622,60
21.152887,76
21.173152,78
21.193417,77
21.213682,79
21.233948,68
21.254213,62
21.274478,64
21.294743,65
21.315008,58
21.335273,63
21.355538,74
21.375803,64
21.396068,61
21.416333,66
21.436598,65
21.456864,63
21.477129,72
21.497394,71
21.517659,64
21.537924,84
21.558189,64
21.578454,74
21.598719,56
21.618984,46
21.639249,70
21.659514,58
21.67978,79
21.700045,63
21.72031,59
21.740575,69
21.76084,68
21.781105,63
21.80137,81
21.821635,73
21.8419,94
21.862165,75
21.88243,68
21.902695,52
21.922961,68
21.943226,59
21.963491,93
21.983756,80
22.004021,57
22.024286,77
22.044551,84
22.064816,74
22.085081,73
22.105346,57
22.125611,78
22.145877,65
22.166142,79
22.186407,49
22.206672,60
22.226937,51
22.247202,67
22.267467,57
22.287732,45
22.307997,65
22.328262,77
22.348527,65
22.368793,58
22.389058,65
22.409323,56
22.429588,70
22.449853,74
22.470118,71
22.490383,72
22.510648,69
22.530913,68
22.551178,59
22.571443,72
22.591709,61
22.611974,74
22.632239,47
22.652504,78
22.672769,68
22.693034,54
22.713299,65
22.733564,65
22.753829,63
22.774094,50
22.794359,66
22.814624,66
22.83489,71
22.855155,62
22.87542,64
22.895685,60
22.91595,71
22.936215,59
22.95648,69
22.976745,54
22.99701,55
23.017275,69
23.03754,81
23.057806,63
23.078071,74
23.098336,57
23.118601,68
23.138866,56
23.159131,61
23.179396,65
23.199661,72
23.219926,68
23.240191,71
23.260456,73
23.280722,76
23.300987,66
23.321252,68
23.341517,63
23.361782,73
23.382047,78
23.402312,79
23.422577,67
23.442842,83
23.463107,55
23.483372,80
23.503637,79
23.523903,66
23.544168,76
23.564433,83
23.584698,88
23.604963,92
23.625228,77
23.645493,74
23.665758,87
23.686023,83
23.706288,76
23.726553,100
23.746819,86
23.767084,80
23.787349,111
23.807614,98
23.827879,95
23.848144,116
23.868409,98
23.888674,109
23.908939,108
23.929204,105
23.949469,117
23.969735,149
23.99,160
24.010265,171
24.03053,203
24.050795,228
24.07106,252
24.091325,261
24.11159,317
24.131855,390
24.15212,443
24.172385,543
24.192651,721
24.212916,806
24.233181,994
24.253446,1160
24.273711,1259
24.293976,1269
24.314241,1232
24.334506,1043
24.354771,911
24.375036,754
24.395301,532
24.415566,478
24.435832,360
24.456097,283
24.476362,248
24.496627,235
24.516892,207
24.537157,195
24.557422,174
24.577687,156
24.597952,147
24.618217,149
24.638482,121
24.658748,137
24.679013,129
24.699278,94
24.719543,95
24.739808,91
24.760073,90
24.780338,88
24.800603,87
24.820868,85
24.841133,86
24.861398,85
24.881664,97
24.901929,76
24.922194,77
24.942459,81
24.962724,83
24.982989,80
25.003254,68
25.023519,74
25.043784,72
25.064049,71
25.084314,76
25.10458,62
25.124845,66
25.14511,65
25.165375,57
25.18564,67
25.205905,62
25.22617,70
25.246435,57
25.2667,58
25.286965,60
25.30723,67
25.327495,66
25.347761,59
25.368026,73
25.388291,72
25.408556,57
25.428821,61
25.449086,77
25.469351,54
25.489616,71
25.509881,46
25.530146,59
25.550411,43
25.570677,64
25.590942,59
25.611207,51
25.631472,64
25.651737,61
25.672002,54
25.692267,39
25.712532,51
25.732797,64
25.753062,57
25.773327,65
25.793593,61
25.813858,43
25.834123,58
25.854388,57
25.874653,59
25.894918,61
25.915183,55
25.935448,55
25.955713,52
25.975978,63
25.996243,45
26.016508,55
26.036774,63
26.057039,67
26.077304,48
26.097569,64
26.117834,57
26.138099,54
26.158364,66
26.178629,55
26.198894,59
26.219159,58
26.239424,57
26.25969,55
26.279955,54
26.30022,45
26.320485,68
26.34075,53
26.361015,58
26.38128,67
26.401545,61
26.42181,56
26.442075,63
26.46234,53
26.482606,47
26.502871,53
26.523136,57
26.543401,64
26.563666,61
26.583931,64
26.604196,42
26.624461,56
26.644726,51
26.664991,58
26.685256,55
26.705522,50
26.725787,52
26.746052,64
26.766317,60
26.786582,41
26.806847,54
26.827112,47
26.847377,36
26.867642,51
26.887907,51
26.908172,49
26.928437,54
26.948703,44
26.968968,41
26.989233,55
27.009498,48
27.029763,42
27.050028,40
27.070293,41
27.090558,29
27.110823,53
27.131088,45
27.151353,60
27.171619,56
27.191884,49
27.212149,45
27.232414,38
27.252679,41
27.272944,29
27.293209,60
27.313474,56
27.333739,44
27.354004,60
27.374269,57
27.394535,55
27.4148,54
27.435065,52
27.45533,45
27.475595,46
27.49586,55
27.516125,58
27.53639,53
27.556655,52
27.57692,57
27.597185,62
27.617451,43
27.637716,45
27.657981,53
27.678246,50
27.698511,42
27.718776,42
27.739041,57
27.759306,50
27.779571,56
27.799836,40
27.820101,39
27.840366,50
27.860632,62
27.880897,49
27.901162,44
27.921427,45
27.941692,49
27.961957,44
27.982222,50
28.002487,47
28.022752,53
28.043017,36
28.063282,49
28.083548,55
28.103813,46
28.124078,50
28.144343,54
28.164608,45
28.184873,54
28.205138,47
28.225403,48
28.245668,51
28.265933,45
28.286198,48
28.306464,48
28.326729,65
28.346994,49
28.367259,47
28.387524,43
28.407789,50
28.428054,47
28.448319,63
28.468584,52
28.488849,37
28.509114,50
28.529379,56
28.549645,56
28.56991,53
28.590175,45
28.61044,50
28.630705,52
28.65097,70
28.671235,51
28.6915,51
28.711765,40
28.73203,50
28.752295,47
28.772561,43
28.792826,47
28.813091,42
28.833356,42
28.853621,43
28.873886,48
28.894151,50
28.914416,47
28.934681,40
28.954946,51
28.975211,64
28.995477,49
29.015742,47
29.036007,53
29.056272,41
29.076537,47
29.096802,53
29.117067,43
29.137332,60
29.157597,42
29.177862,48
29.198127,58
29.218393,51
29.238658,59
29.258923,58
29.279188,50
29.299453,41
29.319718,47
29.339983,47
29.360248,48
29.380513,48
29.400778,65
29.421043,57
29.441308,53
29.461574,55
29.481839,54
29.502104,45
29.522369,52
29.542634,46
29.562899,53
29.583164,52
29.603429,52
29.623694,38
29.643959,64
29.664224,42
29.68449,54
29.704755,53
29.72502,56
29.745285,40
29.76555,39
29.785815,55
29.80608,62
29.826345,66
29.84661,61
29.866875,61
29.88714,63
29.907406,73
29.927671,94
29.947936,105
29.968201,101
29.988466,104
30.008731,96
30.028996,104
30.049261,74
30.069526,72
30.089791,71
30.110056,65
30.130322,61
30.150587,78
30.170852,58
30.191117,70
30.211382,55
30.231647,43
30.251912,51
30.272177,52
30.292442,54
30.312707,55
30.332972,55
30.353237,62
30.373503,57
30.393768,44
30.414033,48
30.434298,56
30.454563,58
30.474828,58
30.495093,50
30.515358,36
30.535623,52
30.555888,40
30.576153,59
30.596419,50
30.616684,56
30.636949,39
30.657214,38
30.677479,47
30.697744,42
30.718009,41
30.738274,69
30.758539,66
30.778804,46
30.799069,58
30.819335,47
30.8396,55
30.859865,57
30.88013,45
30.900395,51
30.92066,71
30.940925,50
30.96119,56
30.981455,41
31.00172,56
31.021985,49
31.04225,59
31.062516,51
31.082781,45
31.103046,69
31.123311,42
31.143576,45
31.163841,61
31.184106,61
31.204371,53
31.224636,59
31.244901,59
31.265166,50
31.285432,66
31.305697,64
31.325962,63
31.346227,70
31.366492,64
31.386757,52
31.407022,65
31.427287,63
31.447552,53
31.467817,65
31.488082,59
31.508348,60
31.528613,60
31.548878,51
31.569143,67
31.589408,74
31.609673,67
31.629938,68
31.650203,58
31.670468,84
31.690733,73
31.710998,65
31.731264,71
31.751529,60
31.771794,62
31.792059,82
31.812324,67
31.832589,81
31.852854,79
31.873119,79
31.893384,76
31.913649,66
31.933914,63
31.954179,79
31.974445,65
31.99471,67
32.014975,107
32.03524,102
32.055505,85
32.07577,83
32.096035,88
32.1163,100
32.136565,116
32.15683,124
32.177095,107
32.197361,120
32.217626,113
32.237891,123
32.258156,121
32.278421,113
32.298686,128
32.318951,101
32.339216,100
32.359481,104
32.379746,108
32.400011,97
32.420277,105
32.440542,113
32.460807,109
32.481072,107
32.501337,107
32.521602,110
32.541867,109
32.562132,118
32.582397,128
32.602662,122
32.622927,128
32.643193,134
32.663458,133
32.683723,157
32.703988,172
32.724253,182
32.744518,151
32.764783,159
32.785048,194
32.805313,198
32.825578,223
32.845843,251
32.866108,252
32.886374,278
32.906639,317
32.926904,318
32.947169,358
32.967434,376
32.987699,425
33.007964,471
33.028229,557
33.048494,604
33.068759,732
33.089024,801
33.10929,983
33.129555,1070
33.14982,1384
33.170085,1591
33.19035,2119
33.210615,2640
33.23088,3200
33.251145,3652
33.27141,4129
33.291675,4137
33.31194,3858
33.332206,3655
33.352471,3283
33.372736,2838
33.393001,2290
33.413266,1912
33.433531,1497
33.453796,1217
33.474061,1027
33.494326,856
33.514591,776
33.534856,630
33.555121,537
33.575387,434
33.595652,413
33.615917,423
33.636182,366
33.656447,331
33.676712,279
33.696977,246
33.717242,251
33.737507,202
33.757772,207
33.778037,178
33.798303,171
33.818568,182
33.838833,165
33.859098,152
33.879363,145
33.899628,127
33.919893,131
33.940158,125
33.960423,120
33.980688,109
34.000953,115
34.021219,124
34.041484,122
34.061749,128
34.082014,114
34.102279,97
34.122544,117
34.142809,109
34.163074,112
34.183339,108
34.203604,111
34.223869,91
34.244135,94
34.2644,100
34.284665,100
34.30493,100
34.325195,104
34.34546,118
34.365725,90
34.38599,78
34.406255,97
34.42652,89
34.446785,94
34.46705,87
34.487316,88
34.507581,98
34.527846,76
34.548111,103
34.568376,95
34.588641,86
34.608906,85
34.629171,88
34.649436,70
34.669701,86
34.689966,81
34.710232,95
34.730497,78
34.750762,94
34.771027,80
34.791292,92
34.811557,100
34.831822,91
34.852087,86
34.872352,95
34.892617,96
34.912882,88
34.933148,73
34.953413,97
34.973678,86
34.993943,104
35.014208,121
35.034473,115
35.054738,92
35.075003,106
35.095268,95
35.115533,114
35.135798,91
35.156064,129
35.176329,113
35.196594,108
35.216859,126
35.237124,118
35.257389,140
35.277654,142
35.297919,141
35.318184,168
35.338449,160
35.358714,186
35.378979,227
35.399245,210
35.41951,231
35.439775,226
35.46004,273
35.480305,279
35.50057,295
35.520835,328
35.5411,417
35.561365,446
35.58163,570
35.601895,698
35.622161,849
35.642426,1069
35.662691,1242
35.682956,1627
35.703221,2183
35.723486,2697
35.743751,3061
35.764016,3300
35.784281,3338
35.804546,3086
35.824811,2582
35.845077,2368
35.865342,2000
35.885607,1683
35.905872,1301
35.926137,983
35.946402,803
35.966667,583
35.986932,500
36.007197,422
36.027462,363
36.047727,331
36.067992,308
36.088258,284
36.108523,219
36.128788,224
36.149053,195
36.169318,189
36.189583,154
36.209848,175
36.230113,139
36.250378,149
36.270643,119
36.290908,104
36.311174,116
36.331439,99
36.351704,105
36.371969,96
36.392234,99
36.412499,101
36.432764,81
36.453029,89
36.473294,92
36.493559,87
36.513824,92
36.53409,73
36.554355,68
36.57462,83
36.594885,88
36.61515,76
36.635415,78
36.65568,72
36.675945,58
36.69621,89
36.716475,61
36.73674,75
36.757006,63
36.777271,72
36.797536,77
36.817801,73
36.838066,66
36.858331,67
36.878596,75
36.898861,76
36.919126,71
36.939391,71
36.959656,52
36.979921,79
37.000187,66
37.020452,70
37.040717,76
37.060982,55
37.081247,57
37.101512,78
37.121777,40
37.142042,63
37.162307,68
37.182572,49
37.202837,75
37.223103,44
37.243368,59
37.263633,43
37.283898,46
37.304163,49
37.324428,48
37.344693,54
37.364958,37
37.385223,49
37.405488,42
37.425753,50
37.446019,56
37.466284,61
37.486549,46
37.506814,53
37.527079,60
37.547344,48
37.567609,55
37.587874,56
37.608139,50
37.628404,38
37.648669,45
37.668934,46
37.6892,46
37.709465,51
37.72973,58
37.749995,44
37.77026,47
37.790525,54
37.81079,43
37.831055,41
37.85132,41
37.871585,48
37.89185,39
37.912116,26
37.932381,40
37.952646,51
37.972911,42
37.993176,47
38.013441,40
38.033706,52
38.053971,40
38.074236,52
38.094501,33
38.114766,53
38.135032,50
38.155297,34
38.175562,49
38.195827,45
38.216092,44
38.236357,48
38.256622,53
38.276887,46
38.297152,30
38.317417,45
38.337682,39
38.357948,31
38.378213,45
38.398478,51
38.418743,43
38.439008,40
38.459273,32
38.479538,40
38.499803,50
38.520068,52
38.540333,57
38.560598,35
38.580863,31
38.601129,45
38.621394,50
38.641659,52
38.661924,52
38.682189,45
38.702454,40
38.722719,42
38.742984,45
38.763249,44
38.783514,45
38.803779,57
38.824045,51
38.84431,53
38.864575,39
38.88484,47
38.905105,55
38.92537,33
38.945635,44
38.9659,43
38.986165,34
39.00643,50
39.026695,36
39.046961,47
39.067226,55
39.087491,47
39.107756,47
39.128021,58
39.148286,56
39.168551,58
39.188816,55
39.209081,65
39.229346,73
39.249611,80
39.269877,59
39.290142,87
39.310407,85
39.330672,96
39.350937,85
39.371202,89
39.391467,119
39.411732,119
39.431997,99
39.452262,108
39.472527,74
39.492792,82
39.513058,82
39.533323,65
39.553588,76
39.573853,67
39.594118,62
39.614383,64
39.634648,55
39.654913,51
39.675178,44
39.695443,59
39.715708,53
39.735974,51
39.756239,53
39.776504,39
39.796769,62
39.817034,60
39.837299,49
39.857564,47
39.877829,40
39.898094,48
39.918359,48
39.938624,34
39.95889,48
39.979155,34
39.99942,33
40.019685,46
40.03995,43
40.060215,54
40.08048,62
40.100745,44
40.12101,41
40.141275,60
40.16154,58
40.181805,45
40.202071,53
40.222336,54
40.242601,41
40.262866,38
40.283131,50
40.303396,51
40.323661,58
40.343926,60
40.364191,56
40.384456,64
40.404721,65
40.424987,56
40.445252,55
40.465517,64
40.485782,66
40.506047,56
40.526312,73
40.546577,87
40.566842,81
40.587107,79
40.607372,78
40.627637,96
40.647903,88
40.668168,108
40.688433,123
40.708698,123
40.728963,129
40.749228,146
40.769493,173
40.789758,197
40.810023,201
40.830288,261
40.850553,281
40.870819,378
40.891084,457
40.911349,549
40.931614,729
40.951879,896
40.972144,943
40.992409,971
41.012674,959
41.032939,929
41.053204,815
41.073469,766
41.093734,646
41.114,626
41.134265,487
41.15453,381
41.174795,314
41.19506,219
41.215325,219
41.23559,194
41.255855,162
41.27612,144
41.296385,106
41.31665,125
41.336916,103
41.357181,112
41.377446,80
41.397711,80
41.417976,71
41.438241,69
41.458506,70
41.478771,57
41.499036,57
41.519301,59
41.539566,52
41.559832,58
41.580097,56
41.600362,54
41.620627,61
41.640892,50
41.661157,61
41.681422,49
41.701687,47
41.721952,54
41.742217,39
41.762482,65
41.782748,43
41.803013,42
41.823278,53
41.843543,52
41.863808,44
41.884073,59
41.904338,39
41.924603,46
41.944868,48
41.965133,48
41.985398,52
42.005663,34
42.025929,30
42.046194,41
42.066459,45
42.086724,37
42.106989,38
42.127254,40
42.147519,41
42.167784,48
42.188049,35
42.208314,49
42.228579,44
42.248845,43
42.26911,43
42.289375,48
42.30964,34
42.329905,31
42.35017,37
42.370435,42
42.3907,46
42.410965,37
42.43123,47
42.451495,41
42.471761,35
42.492026,31
42.512291,39
42.532556,47
42.552821,49
42.573086,46
42.593351,28
42.613616,28
42.633881,41
42.654146,33
42.674411,51
42.694676,34
42.714942,38
42.735207,39
42.755472,36
42.775737,39
42.796002,36
42.816267,35
42.836532,37
42.856797,36
42.877062,42
42.897327,38
42.917592,42
42.937858,40
42.958123,31
42.978388,26
42.998653,36
43.018918,38
43.039183,51
43.059448,41
43.079713,51
43.099978,40
43.120243,40
43.140508,34
43.160774,29
43.181039,45
43.201304,34
43.221569,40
43.241834,39
43.262099,44
43.282364,39
43.302629,37
43.322894,44
43.343159,44
43.363424,55
43.38369,46
43.403955,48
43.42422,45
43.444485,61
43.46475,45
43.485015,55
43.50528,58
43.525545,58
43.54581,77
43.566075,83
43.58634,90
43.606605,108
43.626871,113
43.647136,105
43.667401,92
43.687666,104
43.707931,89
43.728196,72
43.748461,81
43.768726,74
43.788991,68
43.809256,69
43.829521,61
43.849787,49
43.870052,42
43.890317,44
43.910582,45
43.930847,47
43.951112,35
43.971377,46
43.991642,44
44.011907,40
44.032172,51
44.052437,39
44.072703,41
44.092968,40
44.113233,39
44.133498,37
44.153763,30
44.174028,34
44.194293,38
44.214558,43
44.234823,46
44.255088,32
44.275353,33
44.295619,38
44.315884,35
44.336149,32
44.356414,39
44.376679,44
44.396944,37
44.417209,39
44.437474,43
44.457739,54
44.478004,57
44.498269,49
44.518534,38
44.5388,54
44.559065,52
44.57933,64
44.599595,45
44.61986,59
44.640125,48
44.66039,49
44.680655,51
44.70092,51
44.721185,40
44.74145,32
44.761716,33
44.781981,47
44.802246,34
44.822511,36
44.842776,31
44.863041,33
44.883306,36
44.903571,39
44.923836,41
44.944101,37
44.964366,39
44.984632,39
45.004897,29
45.025162,35
45.045427,36
45.065692,35
45.085957,34
45.106222,36
45.126487,45
45.146752,33
45.167017,26
45.187282,31
45.207547,48
45.227813,31
45.248078,37
45.268343,41
45.288608,34
45.308873,40
45.329138,32
45.349403,41
45.369668,40
45.389933,42
45.410198,36
45.430463,33
45.450729,32
45.470994,34
45.491259,40
45.511524,35
45.531789,29
45.552054,45
45.572319,27
45.592584,31
45.612849,32
45.633114,35
45.653379,30
45.673645,33
45.69391,35
45.714175,32
45.73444,35
45.754705,31
45.77497,34
45.795235,34
45.8155,37
45.835765,34
45.85603,34
45.876295,31
45.896561,34
45.916826,37
45.937091,35
45.957356,39
45.977621,38
45.997886,26
46.018151,24
46.038416,47
46.058681,31
46.078946,30
46.099211,38
46.119476,38
46.139742,37
46.160007,30
46.180272,42
46.200537,32
46.220802,40
46.241067,41
46.261332,39
46.281597,37
46.301862,24
46.322127,30
46.342392,34
46.362658,41
46.382923,31
46.403188,48
46.423453,34
46.443718,37
46.463983,37
46.484248,36
46.504513,35
46.524778,34
46.545043,38
46.565308,32
46.585574,38
46.605839,41
46.626104,31
46.646369,31
46.666634,40
46.686899,33
46.707164,29
46.727429,33
46.747694,35
46.767959,38
46.788224,39
46.80849,43
46.828755,31
46.84902,40
46.869285,37
46.88955,38
46.909815,44
46.93008,46
46.950345,41
46.97061,39
46.990875,28
47.01114,32
47.031405,34
47.051671,31
47.071936,38
47.092201,42
47.112466,37
47.132731,33
47.152996,35
47.173261,30
47.193526,31
47.213791,42
47.234056,40
47.254321,34
47.274587,40
47.294852,42
47.315117,37
47.335382,34
47.355647,39
47.375912,35
47.396177,37
47.416442,37
47.436707,37
47.456972,39
47.477237,40
47.497503,41
47.517768,44
47.538033,37
47.558298,39
47.578563,44
47.598828,34
47.619093,42
47.639358,43
47.659623,49
47.679888,37
47.700153,42
47.720418,40
47.740684,33
47.760949,43
47.781214,36
47.801479,40
47.821744,43
47.842009,53
47.862274,55
47.882539,37
47.902804,41
47.923069,47
47.943334,42
47.9636,47
47.983865,38
48.00413,52
48.024395,44
48.04466,44
48.064925,38
48.08519,47
48.105455,41
48.12572,45
48.145985,53
48.16625,48
48.186516,54
48.206781,46
48.227046,40
48.247311,52
48.267576,44
48.287841,39
48.308106,45
48.328371,50
48.348636,62
48.368901,49
48.389166,65
48.409432,41
48.429697,53
48.449962,48
48.470227,65
48.490492,61
48.510757,56
48.531022,54
48.551287,61
48.571552,77
48.591817,62
48.612082,69
48.632347,68
48.652613,86
48.672878,66
48.693143,61
48.713408,59
48.733673,60
48.753938,73
48.774203,46
48.794468,56
48.814733,59
48.834998,60
48.855263,67
48.875529,67
48.895794,70
48.916059,72
48.936324,57
48.956589,88
48.976854,82
48.997119,77
49.017384,103
49.037649,74
49.057914,94
49.078179,95
49.098445,96
49.11871,106
49.138975,110
49.15924,126
49.179505,125
49.19977,143
49.220035,152
49.2403,158
49.260565,166
49.28083,195
49.301095,203
49.321361,237
49.341626,264
49.361891,278
49.382156,313
49.402421,351
49.422686,402
49.442951,496
49.463216,596
49.483481,713
49.503746,836
49.524011,988
49.544276,1216
49.564542,1448
49.584807,1408
49.605072,1365
49.625337,1281
49.645602,1292
49.665867,1170
49.686132,1028
49.706397,964
49.726662,896
49.746927,796
49.767192,665
49.787458,576
49.807723,438
49.827988,398
49.848253,313
49.868518,283
49.888783,280
49.909048,211
49.929313,195
49.949578,175
49.969843,191
49.990108,134
50.010374,129
50.030639,116
50.050904,119
50.071169,128
50.091434,83
50.111699,100
50.131964,98
50.152229,86
50.172494,88
50.192759,84
50.213024,70
50.233289,80
50.253555,82
50.27382,72
50.294085,67
50.31435,75
50.334615,55
50.35488,67
50.375145,56
50.39541,63
50.415675,70
50.43594,72
50.456205,56
50.476471,54
50.496736,42
50.517001,70
50.537266,51
50.557531,62
50.577796,49
50.598061,55
50.618326,57
50.638591,55
50.658856,42
50.679121,50
50.699387,70
50.719652,54
50.739917,48
50.760182,48
50.780447,50
50.800712,49
50.820977,33
50.841242,34
50.861507,39
50.881772,49
50.902037,49
50.922303,50
50.942568,48
50.962833,52
50.983098,37
51.003363,44
51.023628,56
51.043893,57
51.064158,54
51.084423,29
51.104688,45
51.124953,34
51.145218,33
51.165484,38
51.185749,47
51.206014,58
51.226279,39
51.246544,44
51.266809,65
51.287074,44
51.307339,40
51.327604,41
51.347869,50
51.368134,52
51.3884,53
51.408665,38
51.42893,36
51.449195,48
51.46946,38
51.489725,46
51.50999,35
51.530255,51
51.55052,52
51.570785,51
51.59105,45
51.611316,56
51.631581,51
51.651846,52
51.672111,50
51.692376,68
51.712641,56
51.732906,41
51.753171,52
51.773436,56
51.793701,53
51.813966,57
51.834232,40
51.854497,40
51.874762,44
51.895027,35
51.915292,43
51.935557,52
51.955822,48
51.976087,44
51.996352,50
52.016617,52
52.036882,44
52.057147,36
52.077413,40
52.097678,44
52.117943,53
52.138208,40
52.158473,38
52.178738,45
52.199003,36
52.219268,38
52.239533,38
52.259798,44
52.280063,47
52.300329,51
52.320594,57
52.340859,53
52.361124,62
52.381389,48
52.401654,45
52.421919,44
52.442184,53
52.462449,46
52.482714,51
52.502979,40
52.523245,40
52.54351,55
52.563775,69
52.58404,45
52.604305,38
52.62457,54
52.644835,47
52.6651,50
52.685365,59
52.70563,41
52.725895,51
52.74616,46
52.766426,65
52.786691,45
52.806956,35
52.827221,46
52.847486,52
52.867751,42
52.888016,53
52.908281,51
52.928546,50
52.948811,64
52.969076,55
52.989342,65
53.009607,59
53.029872,54
53.050137,57
53.070402,58
53.090667,49
53.110932,62
53.131197,58
53.151462,50
53.171727,48
53.191992,56
53.212258,52
53.232523,58
53.252788,67
53.273053,53
53.293318,64
53.313583,65
53.333848,62
53.354113,72
53.374378,53
53.394643,75
53.414908,62
53.435174,64
53.455439,73
53.475704,96
53.495969,65
53.516234,57
53.536499,85
53.556764,68
53.577029,89
53.597294,96
53.617559,103
53.637824,95
53.658089,104
53.678355,95
53.69862,98
53.718885,136
53.73915,108
53.759415,147
53.77968,139
53.799945,158
53.82021,164
53.840475,204
53.86074,221
53.881005,255
53.901271,228
53.921536,267
53.941801,326
53.962066,343
53.982331,386
54.002596,431
54.022861,559
54.043126,616
54.063391,759
54.083656,917
54.103921,1135
54.124187,1342
54.144452,1576
54.164717,1736
54.184982,1831
54.205247,1762
54.225512,1624
54.245777,1485
54.266042,1343
54.286307,1266
54.306572,1235
54.326837,1104
54.347102,1087
54.367368,915
54.387633,737
54.407898,615
54.428163,484
54.448428,405
54.468693,372
54.488958,316
54.509223,283
54.529488,239
54.549753,192
54.570018,169
54.590284,181
54.610549,164
54.630814,156
54.651079,110
54.671344,117
54.691609,109
54.711874,96
54.732139,115
54.752404,110
54.772669,98
54.792934,86
54.8132,89
54.833465,64
54.85373,85
54.873995,79
54.89426,83
54.914525,74
54.93479,96
54.955055,71
54.97532,61
54.995585,77
55.01585,86
55.036116,78
55.056381,73
55.076646,71
55.096911,59
55.117176,57
55.137441,69
55.157706,52
55.177971,57
55.198236,53
55.218501,45
55.238766,61
55.259031,60
55.279297,46
55.299562,56
55.319827,62
55.340092,65
55.360357,62
55.380622,71
55.400887,67
55.421152,50
55.441417,47
55.461682,46
55.481947,59
55.502213,53
55.522478,61
55.542743,61
55.563008,58
55.583273,57
55.603538,55
55.623803,53
55.644068,58
55.664333,48
55.684598,64
55.704863,55
55.725129,49
55.745394,56
55.765659,51
55.785924,47
55.806189,56
55.826454,66
55.846719,59
55.866984,56
55.887249,61
55.907514,63
55.927779,64
55.948045,54
55.96831,73
55.988575,60
56.00884,45
56.029105,67
56.04937,54
56.069635,60
56.0899,62
56.110165,58
56.13043,65
56.150695,70
56.17096,66
56.191226,59
56.211491,67
56.231756,70
56.252021,73
56.272286,79
56.292551,78
56.312816,77
56.333081,62
56.353346,65
56.373611,57
56.393876,65
56.414142,58
56.434407,57
56.454672,56
56.474937,56
56.495202,59
56.515467,65
56.535732,56
56.555997,53
56.576262,58
56.596527,67
56.616792,52
56.637058,44
56.657323,53
56.677588,48
56.697853,58
56.718118,60
56.738383,43
56.758648,52
56.778913,38
56.799178,60
56.819443,44
56.839708,52
56.859973,53
56.880239,43
56.900504,44
56.920769,52
56.941034,51
56.961299,54
56.981564,44
57.001829,56
57.022094,50
57.042359,57
57.062624,53
57.082889,63
57.103155,63
57.12342,76
57.143685,73
57.16395,69
57.184215,81
57.20448,71
57.224745,70
57.24501,81
57.265275,94
57.28554,83
57.305805,78
57.326071,88
57.346336,120
57.366601,101
57.386866,118
57.407131,122
57.427396,134
57.447661,118
57.467926,148
57.488191,161
57.508456,168
57.528721,198
57.548987,219
57.569252,262
57.589517,229
57.609782,314
57.630047,307
57.650312,339
57.670577,376
57.690842,352
57.711107,338
57.731372,355
57.751637,345
57.771902,323
57.792168,271
57.812433,238
57.832698,250
57.852963,242
57.873228,222
57.893493,203
57.913758,185
57.934023,174
57.954288,145
57.974553,124
57.994818,107
58.015084,110
58.035349,80
58.055614,83
58.075879,89
58.096144,79
58.116409,75
58.136674,69
58.156939,59
58.177204,58
58.197469,60
58.217734,60
58.238,60
58.258265,62
58.27853,62
58.298795,61
58.31906,53
58.339325,55
58.35959,61
58.379855,54
58.40012,64
58.420385,56
58.44065,67
58.460916,45
58.481181,63
58.501446,42
58.521711,55
58.541976,57
58.562241,64
58.582506,66
58.602771,54
58.623036,50
58.643301,49
58.663566,54
58.683831,53
58.704097,42
58.724362,48
58.744627,54
58.764892,50
58.785157,59
58.805422,53
58.825687,50
58.845952,47
58.866217,46
58.886482,50
58.906747,47
58.927013,44
58.947278,57
58.967543,45
58.987808,41
59.008073,66
59.028338,47
59.048603,44
59.068868,51
59.089133,54
59.109398,63
59.129663,65
59.149929,42
59.170194,57
59.190459,60
59.210724,53
59.230989,71
59.251254,54
59.271519,61
59.291784,49
59.312049,52
59.332314,45
59.352579,58
59.372844,57
59.39311,55
59.413375,57
59.43364,47
59.453905,53
59.47417,61
59.494435,57
59.5147,58
59.534965,53
59.55523,53
59.575495,46
59.59576,52
59.616026,52
59.636291,42
59.656556,60
59.676821,67
59.697086,53
59.717351,61
59.737616,46
59.757881,45
59.778146,67
59.798411,53
59.818676,54
59.838942,45
59.859207,45
59.879472,64
59.899737,52
59.920002,64
59.940267,47
59.960532,50
59.980797,66
60.001062,64
60.021327,53
60.041592,56
60.061858,41
60.082123,48
60.102388,64
60.122653,49
60.142918,48
60.163183,54
60.183448,42
60.203713,64
60.223978,60
60.244243,55
60.264508,47
60.284773,50
60.305039,62
60.325304,63
60.345569,58
60.365834,43
60.386099,55
60.406364,52
60.426629,58
60.446894,65
60.467159,68
60.487424,54
60.507689,44
60.527955,45
60.54822,59
60.568485,54
60.58875,69
60.609015,63
60.62928,63
60.649545,61
60.66981,54
60.690075,60
60.71034,70
60.730605,63
60.750871,55
60.771136,62
60.791401,61
60.811666,53
60.831931,56
60.852196,64
60.872461,51
60.892726,61
60.912991,49
60.933256,58
60.953521,63
60.973787,72
60.994052,57
61.014317,54
61.034582,62
61.054847,51
61.075112,67
61.095377,59
61.115642,61
61.135907,62
61.156172,50
61.176437,64
61.196702,61
61.216968,62
61.237233,74
61.257498,74
61.277763,57
61.298028,58
61.318293,59
61.338558,59
61.358823,65
61.379088,76
61.399353,75
61.419618,58
61.439884,67
61.460149,72
61.480414,63
61.500679,63
61.520944,73
61.541209,68
61.561474,62
61.581739,87
61.602004,68
61.622269,66
61.642534,70
61.6628,83
61.683065,81
61.70333,73
61.723595,74
61.74386,80
61.764125,88
61.78439,66
61.804655,73
61.82492,66
61.845185,74
61.86545,72
61.885715,90
61.905981,89
61.926246,89
61.946511,80
61.966776,84
61.987041,109
62.007306,102
62.027571,91
62.047836,106
62.068101,102
62.088366,117
62.108631,123
62.128897,141
62.149162,143
62.169427,172
62.189692,163
62.209957,141
62.230222,175
62.250487,179
62.270752,179
62.291017,194
62.311282,237
62.331547,271
62.351813,323
62.372078,330
62.392343,374
62.412608,417
62.432873,516
62.453138,535
62.473403,723
62.493668,838
62.513933,960
62.534198,1085
62.554463,1097
62.574729,1092
62.594994,1067
62.615259,864
62.635524,793
62.655789,759
62.676054,736
62.696319,745
62.716584,735
62.736849,681
62.757114,663
62.777379,556
62.797644,453
62.81791,398
62.838175,311
62.85844,275
62.878705,252
62.89897,226
62.919235,225
62.9395,186
62.959765,189
62.98003,156
63.000295,150
63.02056,156
63.040826,125
63.061091,116
63.081356,108
63.101621,108
63.121886,102
63.142151,121
63.162416,111
63.182681,92
63.202946,119
63.223211,111
63.243476,94
63.263742,86
63.284007,103
63.304272,90
63.324537,97
63.344802,93
63.365067,102
63.385332,83
63.405597,91
63.425862,106
63.446127,99
63.466392,100
63.486658,118
63.506923,103
63.527188,111
63.547453,112
63.567718,94
63.587983,100
63.608248,104
63.628513,99
63.648778,127
63.669043,123
63.689308,154
63.709573,124
63.729839,137
63.750104,144
63.770369,155
63.790634,169
63.810899,190
63.831164,205
63.851429,184
63.871694,187
63.891959,241
63.912224,258
63.932489,284
63.952755,334
63.97302,420
63.993285,487
64.01355,527
64.033815,666
64.05408,786
64.074345,914
64.09461,1068
64.114875,1158
64.13514,1127
64.155405,1081
64.175671,961
64.195936,823
64.216201,811
64.236466,752
64.256731,776
64.276996,740
64.297261,734
64.317526,685
64.337791,664
64.358056,547
64.378321,444
64.398586,352
64.418852,295
64.439117,260
64.459382,231
64.479647,186
64.499912,160
64.520177,154
64.540442,164
64.560707,138
64.580972,130
64.601237,111
64.621502,109
64.641768,125
64.662033,120
64.682298,109
64.702563,100
64.722828,86
64.743093,91
64.763358,96
64.783623,88
64.803888,91
64.824153,62
64.844418,75
64.864684,68
64.884949,81
64.905214,83
64.925479,82
64.945744,82
64.966009,73
64.986274,58
65.006539,64
65.026804,69
65.047069,64
65.067334,70
65.0876,58
65.107865,62
65.12813,67
65.148395,64
65.16866,61
65.188925,65
65.20919,54
65.229455,55
65.24972,49
65.269985,72
65.29025,60
65.310515,56
65.330781,49
65.351046,68
65.371311,61
65.391576,62
65.411841,60
65.432106,50
65.452371,64
65.472636,58
65.492901,60
65.513166,67
65.533431,51
65.553697,49
65.573962,47
65.594227,56
65.614492,50
65.634757,60
65.655022,51
65.675287,52
65.695552,59
65.715817,49
65.736082,58
65.756347,50
65.776613,53
65.796878,58
65.817143,56
65.837408,64
65.857673,57
65.877938,62
65.898203,56
65.918468,54
65.938733,59
65.958998,58
65.979263,58
65.999529,57
66.019794,50
66.040059,76
66.060324,47
66.080589,55
66.100854,54
66.121119,72
66.141384,57
66.161649,70
66.181914,46
66.202179,64
66.222444,64
66.24271,61
66.262975,67
66.28324,53
66.303505,60
66.32377,46
66.344035,44
66.3643,59
66.384565,54
66.40483,41
66.425095,49
66.44536,52
66.465626,42
66.485891,61
66.506156,49
66.526421,47
66.546686,45
66.566951,46
66.587216,57
66.607481,56
66.627746,40
66.648011,51
66.668276,46
66.688542,51
66.708807,45
66.729072,51
66.749337,43
66.769602,55
66.789867,42
66.810132,50
66.830397,56
66.850662,47
66.870927,49
66.891192,59
66.911457,57
66.931723,62
66.951988,45
66.972253,56
66.992518,37
67.012783,47
67.033048,41
67.053313,55
67.073578,48
67.093843,53
67.114108,46
67.134373,44
67.154639,46
67.174904,49
67.195169,47
67.215434,47
67.235699,57
67.255964,42
67.276229,38
67.296494,58
67.316759,47
67.337024,64
67.357289,58
67.377555,45
67.39782,46
67.418085,45
67.43835,49
67.458615,43
67.47888,42
67.499145,43
67.51941,49
67.539675,40
67.55994,50
67.580205,41
67.600471,42
67.620736,44
67.641001,35
67.661266,43
67.681531,40
67.701796,47
67.722061,45
67.742326,46
67.762591,53
67.782856,60
67.803121,50
67.823386,50
67.843652,35
67.863917,44
67.884182,38
67.904447,45
67.924712,50
67.944977,54
67.965242,39
67.985507,50
68.005772,50
68.026037,48
68.046302,47
68.066568,62
68.086833,50
68.107098,36
68.127363,49
68.147628,36
68.167893,46
68.188158,42
68.208423,31
68.228688,51
68.248953,33
68.269218,45
68.289484,55
68.309749,35
68.330014,44
68.350279,40
68.370544,45
68.390809,48
68.411074,43
68.431339,48
68.451604,38
68.471869,45
68.492134,32
68.5124,39
68.532665,53
68.55293,47
68.573195,52
68.59346,47
68.613725,33
68.63399,38
68.654255,46
68.67452,49
68.694785,49
68.71505,38
68.735315,29
68.755581,32
68.775846,56
68.796111,35
68.816376,35
68.836641,45
68.856906,52
68.877171,43
68.897436,55
68.917701,33
68.937966,30
68.958231,39
68.978497,45
68.998762,48
69.019027,42
69.039292,44
69.059557,45
69.079822,46
69.100087,53
69.120352,39
69.140617,35
69.160882,43
69.181147,40
69.201413,49
69.221678,53
69.241943,43
69.262208,53
69.282473,56
69.302738,48
69.323003,48
69.343268,50
69.363533,52
69.383798,60
69.404063,57
69.424328,49
69.444594,48
69.464859,63
69.485124,64
69.505389,63
69.525654,61
69.545919,78
69.566184,65
69.586449,87
69.606714,99
69.626979,113
69.647244,120
69.66751,114
69.687775,132
69.70804,135
69.728305,123
69.74857,107
69.768835,102
69.7891,93
69.809365,83
69.82963,101
69.849895,91
69.87016,92
69.890426,101
69.910691,108
69.930956,78
69.951221,84
69.971486,83
69.991751,55
70.012016,66
70.032281,60
70.052546,61
70.072811,57
70.093076,63
70.113342,54
70.133607,52
70.153872,49
70.174137,52
70.194402,37
70.214667,45
70.234932,46
70.255197,35
70.275462,48
70.295727,43
70.315992,55
70.336257,48
70.356523,45
70.376788,51
70.397053,55
70.417318,40
70.437583,56
70.457848,47
70.478113,41
70.498378,43
70.518643,42
70.538908,40
70.559173,43
70.579439,56
70.599704,49
70.619969,44
70.640234,47
70.660499,38
70.680764,45
70.701029,47
70.721294,37
70.741559,41
70.761824,37
70.782089,33
70.802355,44
70.82262,52
70.842885,46
70.86315,37
70.883415,42
70.90368,40
70.923945,39
70.94421,54
70.964475,44
70.98474,47
71.005005,51
71.02527,44
71.045536,59
71.065801,44
71.086066,37
71.106331,46
71.126596,40
71.146861,45
71.167126,48
71.187391,53
71.207656,56
71.227921,41
71.248186,46
71.268452,43
71.288717,38
71.308982,48
71.329247,53
71.349512,53
71.369777,45
71.390042,63
71.410307,43
71.430572,49
71.450837,47
71.471102,59
71.491368,52
71.511633,65
71.531898,58
71.552163,49
71.572428,51
71.592693,70
71.612958,53
71.633223,80
71.653488,82
71.673753,81
71.694018,76
71.714284,68
71.734549,93
71.754814,86
71.775079,99
71.795344,102
71.815609,109
71.835874,132
71.856139,144
71.876404,153
71.896669,211
71.916934,218
71.937199,246
71.957465,295
71.97773,344
71.997995,380
72.01826,377
72.038525,351
72.05879,355
72.079055,345
72.09932,293
72.119585,273
72.13985,252
72.160115,274
72.180381,251
72.200646,262
72.220911,270
72.241176,272
72.261441,231
72.281706,233
72.301971,245
72.322236,217
72.342501,214
72.362766,189
72.383031,155
72.403297,170
72.423562,154
72.443827,132
72.464092,124
72.484357,110
72.504622,120
72.524887,103
72.545152,103
72.565417,111
72.585682,104
72.605947,79
72.626213,89
72.646478,74
72.666743,75
72.687008,62
72.707273,71
72.727538,59
72.747803,47
72.768068,54
72.788333,52
72.808598,59
72.828863,51
72.849128,42
72.869394,59
72.889659,52
72.909924,47
72.930189,44
72.950454,45
72.970719,45
72.990984,52
73.011249,48
73.031514,44
73.051779,58
73.072044,51
73.09231,39
73.112575,48
73.13284,36
73.153105,33
73.17337,38
73.193635,45
73.2139,47
73.234165,43
73.25443,50
73.274695,50
73.29496,43
73.315226,47
73.335491,56
73.355756,43
73.376021,27
73.396286,47
73.416551,54
73.436816,41
73.457081,41
73.477346,50
73.497611,46
73.517876,33
73.538141,40
73.558407,33
73.578672,40
73.598937,49
73.619202,42
73.639467,34
73.659732,42
73.679997,36
73.700262,52
73.720527,53
73.740792,40
73.761057,41
73.781323,47
73.801588,27
73.821853,43
73.842118,38
73.862383,34
73.882648,34
73.902913,47
73.923178,37
73.943443,38
73.963708,47
73.983973,52
74.004239,42
74.024504,40
74.044769,37
74.065034,35
74.085299,31
74.105564,51
74.125829,39
74.146094,42
74.166359,40
74.186624,55
74.206889,40
74.227155,38
74.24742,41
74.267685,41
74.28795,41
74.308215,43
74.32848,47
74.348745,33
74.36901,42
74.389275,37
74.40954,39
74.429805,42
74.45007,42
74.470336,44
74.490601,40
74.510866,46
74.531131,36
74.551396,42
74.571661,51
74.591926,45
74.612191,50
74.632456,30
74.652721,35
74.672986,43
74.693252,42
74.713517,39
74.733782,58
74.754047,48
74.774312,56
74.794577,42
74.814842,48
74.835107,60
74.855372,33
74.875637,54
74.895902,41
74.916168,53
74.936433,61
74.956698,44
74.976963,52
74.997228,55
75.017493,29
75.037758,64
75.058023,47
75.078288,64
75.098553,46
75.118818,55
75.139084,61
75.159349,61
75.179614,55
75.199879,66
75.220144,81
75.240409,83
75.260674,62
75.280939,88
75.301204,90
75.321469,70
75.341734,87
75.361999,107
75.382265,98
75.40253,98
75.422795,144
75.44306,139
75.463325,139
75.48359,163
75.503855,202
75.52412,248
75.544385,233
75.56465,258
75.584915,296
75.605181,266
75.625446,217
75.645711,216
75.665976,203
75.686241,166
75.706506,154
75.726771,176
75.747036,185
75.767301,197
75.787566,193
75.807831,172
75.828097,167
75.848362,144
75.868627,115
75.888892,96
75.909157,88
75.929422,85
75.949687,78
75.969952,73
75.990217,71
76.010482,45
76.030747,69
76.051012,54
76.071278,62
76.091543,61
76.111808,47
76.132073,55
76.152338,54
76.172603,55
76.192868,45
76.213133,41
76.233398,50
76.253663,39
76.273928,36
76.294194,43
76.314459,58
76.334724,49
76.354989,50
76.375254,53
76.395519,53
76.415784,47
76.436049,42
76.456314,37
76.476579,53
76.496844,38
76.51711,46
76.537375,50
76.55764,45
76.577905,46
76.59817,58
76.618435,46
76.6387,47
76.658965,57
76.67923,45
76.699495,52
76.71976,49
76.740026,42
76.760291,37
76.780556,46
76.800821,42
76.821086,40
76.841351,42
76.861616,41
76.881881,50
76.902146,49
76.922411,51
76.942676,42
76.962941,49
76.983207,45
77.003472,42
77.023737,48
77.044002,37
77.064267,43
77.084532,44
77.104797,50
77.125062,47
77.145327,42
77.165592,41
77.185857,49
77.206123,48
77.226388,52
77.246653,26
77.266918,59
77.287183,41
77.307448,43
77.327713,36
77.347978,38
77.368243,49
77.388508,49
77.408773,51
77.429039,60
77.449304,39
77.469569,46
77.489834,42
77.510099,43
77.530364,58
77.550629,54
77.570894,54
77.591159,50
77.611424,55
77.631689,45
77.651955,57
77.67222,61
77.692485,83
77.71275,71
77.733015,70
77.75328,96
77.773545,103
77.79381,117
77.814075,113
77.83434,139
77.854605,119
77.87487,118
77.895136,113
77.915401,107
77.935666,99
77.955931,101
77.976196,96
77.996461,85
78.016726,91
78.036991,84
78.057256,95
78.077521,103
78.097786,87
78.118052,70
78.138317,69
78.158582,70
78.178847,69
78.199112,59
78.219377,57
78.239642,59
78.259907,58
78.280172,68
78.300437,59
78.320702,52
78.340968,52
78.361233,47
78.381498,64
78.401763,48
78.422028,61
78.442293,50
78.462558,50
78.482823,48
78.503088,46
78.523353,58
78.543618,50
78.563883,48
78.584149,58
78.604414,38
78.624679,49
78.644944,41
78.665209,65
78.685474,66
78.705739,57
78.726004,58
78.746269,63
78.766534,49
78.786799,51
78.807065,70
78.82733,69
78.847595,66
78.86786,78
78.888125,88
78.90839,71
78.928655,83
78.94892,78
78.969185,63
78.98945,56
79.009715,71
79.029981,63
79.050246,68
79.070511,66
79.090776,76
79.111041,66
79.131306,75
79.151571,61
79.171836,45
79.192101,45
79.212366,60
79.232631,43
79.252897,41
79.273162,66
79.293427,42
79.313692,36
79.333957,43
79.354222,38
79.374487,48
79.394752,50
79.415017,55
79.435282,40
79.455547,48
79.475812,46
79.496078,53
79.516343,44
79.536608,42
79.556873,44
79.577138,47
79.597403,47
79.617668,41
79.637933,41
79.658198,42
79.678463,45
79.698728,44
79.718994,53
79.739259,36
79.759524,54
79.779789,43
79.800054,41
79.820319,59
79.840584,32
79.860849,52
79.881114,43
79.901379,38
79.921644,40
79.94191,47
79.962175,41
79.98244,41
80.002705,54
80.02297,50
80.043235,44
80.0635,46
80.083765,51
80.10403,38
80.124295,55
80.14456,58
80.164826,53
80.185091,39
80.205356,49
80.225621,62
80.245886,54
80.266151,74
80.286416,48
80.306681,54
80.326946,60
80.347211,49
80.367476,55
80.387741,52
80.408007,69
80.428272,62
80.448537,55
80.468802,65
80.489067,55
80.509332,76
80.529597,71
80.549862,88
80.570127,88
80.590392,85
80.610657,94
80.630923,123
80.651188,143
80.671453,141
80.691718,162
80.711983,153
80.732248,157
80.752513,188
80.772778,182
80.793043,197
80.813308,186
80.833573,184
80.853839,177
80.874104,156
80.894369,158
80.914634,140
80.934899,131
80.955164,168
80.975429,133
80.995694,138
81.015959,141
81.036224,128
81.056489,122
81.076754,119
81.09702,86
81.117285,86
81.13755,81
81.157815,75
81.17808,87
81.198345,86
81.21861,77
81.238875,66
81.25914,59
81.279405,77
81.29967,59
81.319936,61
81.340201,54
81.360466,68
81.380731,62
81.400996,61
81.421261,52
81.441526,57
81.461791,43
81.482056,46
81.502321,54
81.522586,56
81.542852,57
81.563117,59
81.583382,49
81.603647,54
81.623912,41
81.644177,59
81.664442,57
81.684707,45
81.704972,44
81.725237,50
81.745502,41
81.765768,50
81.786033,55
81.806298,48
81.826563,56
81.846828,49
81.867093,53
81.887358,49
81.907623,49
81.927888,50
81.948153,51
81.968418,39
81.988683,56
82.008949,55
82.029214,38
82.049479,44
82.069744,53
82.090009,41
82.110274,51
82.130539,42
82.150804,49
82.171069,44
82.191334,52
82.211599,58
82.231865,41
82.25213,44
82.272395,47
82.29266,40
82.312925,44
82.33319,47
82.353455,51
82.37372,50
82.393985,47
82.41425,54
82.434515,50
82.454781,52
82.475046,59
82.495311,55
82.515576,57
82.535841,60
82.556106,68
82.576371,72
82.596636,56
82.616901,63
82.637166,61
82.657431,67
82.677697,60
82.697962,67
82.718227,66
82.738492,58
82.758757,74
82.779022,88
82.799287,86
82.819552,88
82.839817,94
82.860082,113
82.880347,111
82.900612,124
82.920878,131
82.941143,140
82.961408,157
82.981673,169
83.001938,192
83.022203,189
83.042468,198
83.062733,216
83.082998,167
83.103263,152
83.123528,164
83.143794,129
83.164059,140
83.184324,130
83.204589,131
83.224854,131
83.245119,155
83.265384,139
83.285649,151
83.305914,114
83.326179,137
83.346444,130
83.36671,105
83.386975,95
83.40724,96
83.427505,86
83.44777,74
83.468035,85
83.4883,68
83.508565,74
83.52883,61
83.549095,76
83.56936,55
83.589625,59
83.609891,52
83.630156,50
83.650421,57
83.670686,59
83.690951,47
83.711216,50
83.731481,52
83.751746,53
83.772011,43
83.792276,46
83.812541,51
83.832807,41
83.853072,55
83.873337,47
83.893602,41
83.913867,54
83.934132,42
83.954397,40
83.974662,41
83.994927,35
84.015192,44
84.035457,42
84.055723,46
84.075988,53
84.096253,32
84.116518,48
84.136783,48
84.157048,37
84.177313,48
84.197578,51
84.217843,40
84.238108,44
84.258373,41
84.278639,43
84.298904,56
84.319169,51
84.339434,45
84.359699,52
84.379964,54
84.400229,42
84.420494,52
84.440759,61
84.461024,50
84.481289,71
84.501554,63
84.52182,73
84.542085,54
84.56235,62
84.582615,72
84.60288,62
84.623145,54
84.64341,57
84.663675,77
84.68394,89
84.704205,65
84.72447,73
84.744736,86
84.765001,86
84.785266,92
84.805531,95
84.825796,123
84.846061,105
84.866326,131
84.886591,125
84.906856,131
84.927121,183
84.947386,209
84.967652,203
84.987917,251
85.008182,268
85.028447,301
85.048712,267
85.068977,254
85.089242,243
85.109507,225
85.129772,214
85.150037,218
85.170302,185
85.190568,185
85.210833,167
85.231098,196
85.251363,184
85.271628,180
85.291893,199
85.312158,167
85.332423,180
85.352688,154
85.372953,151
85.393218,135
85.413483,83
85.433749,98
85.454014,92
85.474279,81
85.494544,86
85.514809,67
85.535074,60
85.555339,76
85.575604,74
85.595869,68
85.616134,59
85.636399,64
85.656665,50
85.67693,54
85.697195,65
85.71746,59
85.737725,41
85.75799,39
85.778255,51
85.79852,46
85.818785,45
85.83905,45
85.859315,41
85.879581,41
85.899846,50
85.920111,41
85.940376,34
85.960641,49
85.980906,35
86.001171,57
86.021436,39
86.041701,48
86.061966,39
86.082231,37
86.102496,41
86.122762,23
86.143027,43
86.163292,39
86.183557,46
86.203822,41
86.224087,40
86.244352,41
86.264617,40
86.284882,34
86.305147,47
86.325412,45
86.345678,41
86.365943,31
86.386208,32
86.406473,40
86.426738,34
86.447003,49
86.467268,33
86.487533,46
86.507798,39
86.528063,33
86.548328,39
86.568594,34
86.588859,34
86.609124,41
86.629389,42
86.649654,35
86.669919,36
86.690184,34
86.710449,35
86.730714,30
86.750979,39
86.771244,34
86.79151,39
86.811775,23
86.83204,44
86.852305,50
86.87257,41
86.892835,38
86.9131,48
86.933365,60
86.95363,38
86.973895,28
86.99416,47
87.014425,58
87.034691,29
87.054956,32
87.075221,33
87.095486,47
87.115751,40
87.136016,41
87.156281,32
87.176546,34
87.196811,44
87.217076,35
87.237341,42
87.257607,35
87.277872,37
87.298137,40
87.318402,33
87.338667,41
87.358932,31
87.379197,37
87.399462,34
87.419727,42
87.439992,50
87.460257,38
87.480523,48
87.500788,40
87.521053,38
87.541318,38
87.561583,37
87.581848,42
87.602113,37
87.622378,37
87.642643,39
87.662908,40
87.683173,32
87.703438,36
87.723704,28
87.743969,48
87.764234,37
87.784499,37
87.804764,39
87.825029,48
87.845294,43
87.865559,40
87.885824,52
87.906089,47
87.926354,33
87.94662,40
87.966885,41
87.98715,38
88.007415,42
88.02768,41
88.047945,29
88.06821,53
88.088475,43
88.10874,56
88.129005,46
88.14927,47
88.169536,49
88.189801,68
88.210066,61
88.230331,48
88.250596,47
88.270861,67
88.291126,64
88.311391,56
88.331656,70
88.351921,70
88.372186,87
88.392452,89
88.412717,80
88.432982,89
88.453247,103
88.473512,121
88.493777,108
88.514042,135
88.534307,146
88.554572,173
88.574837,187
88.595102,215
88.615367,241
88.635633,241
88.655898,301
88.676163,266
88.696428,246
88.716693,214
88.736958,214
88.757223,186
88.777488,164
88.797753,157
88.818018,165
88.838283,142
88.858549,173
88.878814,153
88.899079,164
88.919344,155
88.939609,166
88.959874,156
88.980139,128
89.000404,149
89.020669,116
89.040934,109
89.061199,100
89.081465,73
89.10173,83
89.121995,75
89.14226,67
89.162525,75
89.18279,59
89.203055,61
89.22332,66
89.243585,47
89.26385,58
89.284115,56
89.304381,56
89.324646,38
89.344911,45
89.365176,50
89.385441,29
89.405706,47
89.425971,42
89.446236,48
89.466501,41
89.486766,34
89.507031,40
89.527296,35
89.547562,37
89.567827,50
89.588092,39
89.608357,41
89.628622,41
89.648887,36
89.669152,44
89.689417,37
89.709682,36
89.729947,40
89.750212,41
89.770478,32
89.790743,40
89.811008,33
89.831273,34
89.851538,29
89.871803,37
89.892068,44
89.912333,34
89.932598,41
89.952863,39
89.973128,49
89.993394,30
